#====================================================
#Wavelength   Intensity CWavelength  CIntensity  Note
#  [nm]         rel         [nm]       rel.      txt 
#====================================================
#===================================================
   200.000     127.050    200.1118    127.0500  
   200.200     115.210    200.3117    115.2100  
   200.400     107.010    200.5117    107.0100  
   200.600     115.370    200.7117    115.3700  
   200.800     120.070    200.9116    120.0700  
   201.000     122.270    201.1116    122.2700  
   201.200     123.870    201.3116    123.8700  
   201.400     121.930    201.5115    121.9300  
   201.600     115.450    201.7115    115.4500  
   201.800     124.870    201.9115    124.8700  
   202.000     114.650    202.1114    114.6500  
   202.200     111.650    202.3114    111.6500  
   202.400     114.850    202.5114    114.8500  
   202.600     110.610    202.7113    110.6100  
   202.800     117.350    202.9113    117.3500  
   203.000     115.270    203.1113    115.2700  
   203.200     119.490    203.3112    119.4900  
   203.400     110.890    203.5112    110.8900  
   203.600     107.610    203.7112    107.6100  
   203.800      97.475    203.9111     97.4750  
   204.000     106.390    204.1111    106.3900  
   204.200     107.510    204.3111    107.5100  
   204.400     125.270    204.5110    125.2700  
   204.600     110.570    204.7110    110.5700  
   204.800     105.550    204.9110    105.5500  
   205.000     122.210    205.1110    122.2100  
   205.200     112.690    205.3109    112.6900  
   205.400     107.790    205.5109    107.7900  
   205.600     120.490    205.7109    120.4900  
   205.800     107.170    205.9108    107.1700  
   206.000      98.855    206.1108     98.8550  
   206.200     110.370    206.3108    110.3700  
   206.400     115.730    206.5107    115.7300  
   206.600     108.930    206.7107    108.9300  
   206.800     114.990    206.9107    114.9900  
   207.000     106.930    207.1106    106.9300  
   207.200     119.670    207.3106    119.6700  
   207.400     110.750    207.5106    110.7500  
   207.600     114.410    207.7105    114.4100  
   207.800     102.730    207.9105    102.7300  
   208.000      99.195    208.1105     99.1950  
   208.200     114.710    208.3104    114.7100  
   208.400     106.570    208.5104    106.5700  
   208.600     130.890    208.7104    130.8900  
   208.800      98.355    208.9103     98.3550  
   209.000     110.690    209.1103    110.6900  
   209.200     110.530    209.3103    110.5300  
   209.400     125.230    209.5102    125.2300  
   209.600     106.170    209.7102    106.1700  
   209.800     128.830    209.9102    128.8300  
   210.000     112.110    210.1101    112.1100  
   210.200     106.530    210.3101    106.5300  
   210.400     119.550    210.5101    119.5500  
   210.600     112.290    210.7100    112.2900  
   210.800     127.530    210.9100    127.5300  
   211.000     106.050    211.1100    106.0500  
   211.200     116.270    211.3099    116.2700  
   211.400     117.390    211.5099    117.3900  
   211.600     122.190    211.7099    122.1900  
   211.800     103.110    211.9098    103.1100  
   212.000     109.490    212.1098    109.4900  
   212.200     109.070    212.3098    109.0700  
   212.400     120.910    212.5097    120.9100  
   212.600     110.790    212.7097    110.7900  
   212.800     110.370    212.9097    110.3700  
   213.000      98.475    213.1096     98.4750  
   213.200     113.550    213.3096    113.5500  
   213.400     106.790    213.5096    106.7900  
   213.600     114.790    213.7095    114.7900  
   213.800     115.430    213.9095    115.4300  
   214.000     128.350    214.1095    128.3500  
   214.200     106.810    214.3094    106.8100  
   214.400     120.450    214.5094    120.4500  
   214.600     104.270    214.7094    104.2700  
   214.800     112.370    214.9093    112.3700  
   215.000     108.690    215.1093    108.6900  
   215.200     125.090    215.3093    125.0900  
   215.400     120.630    215.5093    120.6300  
   215.600     121.950    215.7092    121.9500  
   215.800     122.030    215.9092    122.0300  
   216.000     128.410    216.1092    128.4100  
   216.200     109.430    216.3091    109.4300  
   216.400     130.210    216.5091    130.2100  
   216.600     122.710    216.7091    122.7100  
   216.800     125.710    216.9090    125.7100  
   217.000     114.250    217.1090    114.2500  
   217.200     120.790    217.3090    120.7900  
   217.400     115.850    217.5089    115.8500  
   217.600     110.970    217.7089    110.9700  
   217.800     112.870    217.9089    112.8700  
   218.000     113.170    218.1088    113.1700  
   218.200     121.490    218.3088    121.4900  
   218.400     114.490    218.5088    114.4900  
   218.600     109.630    218.7087    109.6300  
   218.800     118.910    218.9087    118.9100  
   219.000     111.710    219.1087    111.7100  
   219.200     111.810    219.3086    111.8100  
   219.400     118.430    219.5086    118.4300  
   219.600     119.050    219.7086    119.0500  
   219.800     113.350    219.9085    113.3500  
   220.000     117.090    220.1085    117.0900  
   220.200     109.930    220.3085    109.9300  
   220.400     110.610    220.5084    110.6100  
   220.600     114.310    220.7084    114.3100  
   220.800     111.770    220.9084    111.7700  
   221.000     125.110    221.1083    125.1100  
   221.200     116.470    221.3083    116.4700  
   221.400     118.190    221.5083    118.1900  
   221.600     118.790    221.7082    118.7900  
   221.800     128.490    221.9082    128.4900  
   222.000     122.290    222.1082    122.2900  
   222.200     121.190    222.3081    121.1900  
   222.400     120.150    222.5081    120.1500  
   222.600     107.290    222.7081    107.2900  
   222.800     124.370    222.9080    124.3700  
   223.000     123.710    223.1080    123.7100  
   223.200     121.930    223.3080    121.9300  
   223.400     116.910    223.5079    116.9100  
   223.600     114.950    223.7079    114.9500  
   223.800     112.530    223.9079    112.5300  
   224.000     125.390    224.1078    125.3900  
   224.200     106.570    224.3078    106.5700  
   224.400     117.990    224.5078    117.9900  
   224.600     125.770    224.7077    125.7700  
   224.800     122.310    224.9077    122.3100  
   225.000     114.070    225.1077    114.0700  
   225.200     118.850    225.3076    118.8500  
   225.400     127.710    225.5076    127.7100  
   225.600     125.830    225.7076    125.8300  
   225.800     113.530    225.9076    113.5300  
   226.000     111.070    226.1075    111.0700  
   226.200     125.470    226.3075    125.4700  
   226.400     119.750    226.5075    119.7500  
   226.600     124.770    226.7074    124.7700  
   226.800     131.430    226.9074    131.4300  
   227.000     106.350    227.1074    106.3500  
   227.200     126.330    227.3073    126.3300  
   227.400     110.530    227.5073    110.5300  
   227.600     114.570    227.7073    114.5700  
   227.800     119.190    227.9072    119.1900  
   228.000     125.870    228.1072    125.8700  
   228.200     125.150    228.3072    125.1500  
   228.400     118.610    228.5071    118.6100  
   228.600     122.170    228.7071    122.1700  
   228.800     115.070    228.9071    115.0700  
   229.000     128.230    229.1070    128.2300  
   229.200     134.790    229.3070    134.7900  
   229.400     122.370    229.5070    122.3700  
   229.600     134.970    229.7069    134.9700  
   229.800     129.350    229.9069    129.3500  
   230.000     135.530    230.1069    135.5300  
   230.200     126.170    230.3068    126.1700  
   230.400     123.470    230.5068    123.4700  
   230.600     133.270    230.7068    133.2700  
   230.800     129.630    230.9067    129.6300  
   231.000     126.110    231.1067    126.1100  
   231.200     128.770    231.3067    128.7700  
   231.400     125.270    231.5066    125.2700  
   231.600     120.450    231.7066    120.4500  
   231.800     136.890    231.9066    136.8900  
   232.000     135.330    232.1065    135.3300  
   232.200     124.410    232.3065    124.4100  
   232.400     134.970    232.5065    134.9700  
   232.600     144.050    232.7064    144.0500  
   232.800     133.790    232.9064    133.7900  
   233.000     126.610    233.1064    126.6100  
   233.200     137.950    233.3063    137.9500  
   233.400     138.510    233.5063    138.5100  
   233.600     131.530    233.7063    131.5300  
   233.800     150.910    233.9062    150.9100  
   234.000     139.050    234.1062    139.0500  
   234.200     152.610    234.3062    152.6100  
   234.400     151.430    234.5061    151.4300  
   234.600     136.870    234.7061    136.8700  
   234.800     145.130    234.9061    145.1300  
   235.000     157.370    235.1060    157.3700  
   235.200     155.490    235.3060    155.4900  
   235.400     140.010    235.5060    140.0100  
   235.600     159.690    235.7059    159.6900  
   235.800     144.990    235.9059    144.9900  
   236.000     134.530    236.1059    134.5300  
   236.200     149.090    236.3058    149.0900  
   236.400     145.050    236.5058    145.0500  
   236.600     154.710    236.7058    154.7100  
   236.800     150.170    236.9058    150.1700  
   237.000     164.930    237.1057    164.9300  
   237.200     146.430    237.3057    146.4300  
   237.400     148.190    237.5057    148.1900  
   237.600     152.510    237.7056    152.5100  
   237.800     149.290    237.9056    149.2900  
   238.000     156.090    238.1056    156.0900  
   238.200     154.350    238.3055    154.3500  
   238.400     162.750    238.5055    162.7500  
   238.600     160.830    238.7055    160.8300  
   238.800     156.190    238.9054    156.1900  
   239.000     155.170    239.1054    155.1700  
   239.200     169.010    239.3054    169.0100  
   239.400     159.350    239.5053    159.3500  
   239.600     167.870    239.7053    167.8700  
   239.800     176.550    239.9053    176.5500  
   240.000     151.290    240.1052    151.2900  
   240.200     161.030    240.3052    161.0300  
   240.400     164.610    240.5052    164.6100  
   240.600     179.590    240.7051    179.5900  
   240.800     180.650    240.9051    180.6500  
   241.000     158.130    241.1051    158.1300  
   241.200     164.870    241.3050    164.8700  
   241.400     182.210    241.5050    182.2100  
   241.600     177.190    241.7050    177.1900  
   241.800     160.390    241.9049    160.3900  
   242.000     168.910    242.1049    168.9100  
   242.200     171.890    242.3049    171.8900  
   242.400     196.730    242.5048    196.7300  
   242.600     164.310    242.7048    164.3100  
   242.800     183.430    242.9048    183.4300  
   243.000     183.750    243.1047    183.7500  
   243.200     164.490    243.3047    164.4900  
   243.400     165.030    243.5047    165.0300  
   243.600     177.390    243.7046    177.3900  
   243.800     182.530    243.9046    182.5300  
   244.000     183.790    244.1046    183.7900  
   244.200     185.970    244.3045    185.9700  
   244.400     191.150    244.5045    191.1500  
   244.600     185.570    244.7045    185.5700  
   244.800     184.630    244.9044    184.6300  
   245.000     170.570    245.1044    170.5700  
   245.200     187.510    245.3044    187.5100  
   245.400     187.510    245.5043    187.5100  
   245.600     177.910    245.7043    177.9100  
   245.800     165.830    245.9043    165.8300  
   246.000     194.090    246.1042    194.0900  
   246.200     187.110    246.3042    187.1100  
   246.400     186.610    246.5042    186.6100  
   246.600     188.890    246.7041    188.8900  
   246.800     191.450    246.9041    191.4500  
   247.000     183.990    247.1041    183.9900  
   247.200     177.770    247.3041    177.7700  
   247.400     200.050    247.5040    200.0500  
   247.600     193.150    247.7040    193.1500  
   247.800     186.250    247.9040    186.2500  
   248.000     198.710    248.1039    198.7100  
   248.200     194.230    248.3039    194.2300  
   248.400     210.610    248.5039    210.6100  
   248.600     182.710    248.7038    182.7100  
   248.800     186.310    248.9038    186.3100  
   249.000     211.050    249.1038    211.0500  
   249.200     191.530    249.3037    191.5300  
   249.400     219.350    249.5037    219.3500  
   249.600     218.530    249.7037    218.5300  
   249.800     202.790    249.9036    202.7900  
   250.000     193.290    250.1036    193.2900  
   250.200     209.290    250.3036    209.2900  
   250.400     181.490    250.5035    181.4900  
   250.600     203.350    250.7035    203.3500  
   250.800     188.190    250.9035    188.1900  
   251.000     189.030    251.1034    189.0300  
   251.200     206.510    251.3034    206.5100  
   251.400     220.150    251.5034    220.1500  
   251.600     203.550    251.7033    203.5500  
   251.800     198.210    251.9033    198.2100  
   252.000     209.650    252.1033    209.6500  
   252.200     206.670    252.3032    206.6700  
   252.400     213.270    252.5032    213.2700  
   252.600     202.570    252.7032    202.5700  
   252.800     203.810    252.9031    203.8100  
   253.000     194.190    253.1031    194.1900  
   253.200     234.650    253.3031    234.6500  
   253.400     208.690    253.5030    208.6900  
   253.600     208.150    253.7030    208.1500  
   253.800     206.870    253.9030    206.8700  
   254.000     218.170    254.1029    218.1700  
   254.200     205.830    254.3029    205.8300  
   254.400     210.050    254.5029    210.0500  
   254.600     229.570    254.7028    229.5700  
   254.800     212.210    254.9028    212.2100  
   255.000     222.150    255.1028    222.1500  
   255.200     221.330    255.3027    221.3300  
   255.400     207.010    255.5027    207.0100  
   255.600     212.690    255.7027    212.6900  
   255.800     217.510    255.9026    217.5100  
   256.000     240.450    256.1026    240.4500  
   256.200     221.530    256.3026    221.5300  
   256.400     235.010    256.5025    235.0100  
   256.600     213.030    256.7025    213.0300  
   256.800     213.750    256.9025    213.7500  
   257.000     210.110    257.1024    210.1100  
   257.200     203.710    257.3024    203.7100  
   257.400     211.730    257.5024    211.7300  
   257.600     230.610    257.7024    230.6100  
   257.800     225.690    257.9023    225.6900  
   258.000     215.610    258.1023    215.6100  
   258.200     203.750    258.3023    203.7500  
   258.400     232.270    258.5022    232.2700  
   258.600     239.510    258.7022    239.5100  
   258.800     219.870    258.9022    219.8700  
   259.000     227.170    259.1021    227.1700  
   259.200     235.190    259.3021    235.1900  
   259.400     219.730    259.5021    219.7300  
   259.600     239.170    259.7020    239.1700  
   259.800     229.950    259.9020    229.9500  
   260.000     231.670    260.1020    231.6700  
   260.200     219.130    260.3019    219.1300  
   260.400     241.610    260.5019    241.6100  
   260.600     221.630    260.7019    221.6300  
   260.800     238.270    260.9018    238.2700  
   261.000     231.890    261.1018    231.8900  
   261.200     257.870    261.3018    257.8700  
   261.400     248.690    261.5017    248.6900  
   261.600     232.930    261.7017    232.9300  
   261.800     234.730    261.9017    234.7300  
   262.000     240.730    262.1016    240.7300  
   262.200     241.010    262.3016    241.0100  
   262.400     241.930    262.5016    241.9300  
   262.600     255.990    262.7015    255.9900  
   262.800     239.410    262.9015    239.4100  
   263.000     256.030    263.1015    256.0300  
   263.200     252.630    263.3014    252.6300  
   263.400     256.190    263.5014    256.1900  
   263.600     243.730    263.7014    243.7300  
   263.800     232.010    263.9013    232.0100  
   264.000     245.610    264.1013    245.6100  
   264.200     242.910    264.3013    242.9100  
   264.400     241.490    264.5012    241.4900  
   264.600     249.190    264.7012    249.1900  
   264.800     242.950    264.9012    242.9500  
   265.000     231.730    265.1011    231.7300  
   265.200     248.570    265.3011    248.5700  
   265.400     259.430    265.5011    259.4300  
   265.600     249.030    265.7010    249.0300  
   265.800     239.550    265.9010    239.5500  
   266.000     245.510    266.1010    245.5100  
   266.200     253.150    266.3009    253.1500  
   266.400     255.230    266.5009    255.2300  
   266.600     271.450    266.7009    271.4500  
   266.800     262.830    266.9008    262.8300  
   267.000     253.710    267.1008    253.7100  
   267.200     252.050    267.3008    252.0500  
   267.400     249.850    267.5007    249.8500  
   267.600     265.150    267.7007    265.1500  
   267.800     263.690    267.9007    263.6900  
   268.000     241.790    268.1007    241.7900  
   268.200     264.170    268.3006    264.1700  
   268.400     274.610    268.5006    274.6100  
   268.600     257.490    268.7006    257.4900  
   268.800     256.930    268.9005    256.9300  
   269.000     246.670    269.1005    246.6700  
   269.200     262.470    269.3005    262.4700  
   269.400     255.870    269.5004    255.8700  
   269.600     235.270    269.7004    235.2700  
   269.800     262.750    269.9004    262.7500  
   270.000     244.470    270.1003    244.4700  
   270.200     257.870    270.3003    257.8700  
   270.400     263.270    270.5003    263.2700  
   270.600     281.950    270.7002    281.9500  
   270.800     261.830    270.9002    261.8300  
   271.000     269.710    271.1002    269.7100  
   271.200     260.090    271.3001    260.0900  
   271.400     276.330    271.5001    276.3300  
   271.600     262.410    271.7001    262.4100  
   271.800     269.050    271.9000    269.0500  
   272.000     267.490    272.1000    267.4900  
   272.200     271.890    272.3000    271.8900  
   272.400     257.250    272.4999    257.2500  
   272.600     243.730    272.6999    243.7300  
   272.800     264.470    272.8999    264.4700  
   273.000     261.330    273.0998    261.3300  
   273.200     268.030    273.2998    268.0300  
   273.400     280.990    273.4998    280.9900  
   273.600     268.030    273.6997    268.0300  
   273.800     252.750    273.8997    252.7500  
   274.000     285.630    274.0997    285.6300  
   274.200     253.490    274.2996    253.4900  
   274.400     275.630    274.4996    275.6300  
   274.600     247.030    274.6996    247.0300  
   274.800     259.410    274.8995    259.4100  
   275.000     252.310    275.0995    252.3100  
   275.200     270.590    275.2995    270.5900  
   275.400     290.090    275.4994    290.0900  
   275.600     262.810    275.6994    262.8100  
   275.800     262.450    275.8994    262.4500  
   276.000     303.290    276.0993    303.2900  
   276.200     248.890    276.2993    248.8900  
   276.400     256.050    276.4993    256.0500  
   276.600     265.130    276.6992    265.1300  
   276.800     279.190    276.8992    279.1900  
   277.000     289.430    277.0992    289.4300  
   277.200     271.670    277.2991    271.6700  
   277.400     259.970    277.4991    259.9700  
   277.600     258.570    277.6991    258.5700  
   277.800     273.930    277.8990    273.9300  
   278.000     260.250    278.0990    260.2500  
   278.200     280.570    278.2990    280.5700  
   278.400     257.330    278.4990    257.3300  
   278.600     262.810    278.6989    262.8100  
