#====================================================
#Wavelength   Intensity CWavelength  CIntensity  Note
#  [nm]         rel         [nm]       rel.      txt 
#====================================================
# CN I: Tv = 7380±320 K, r =1,00
# CN I: Tv = 7796±736 K, r =0,99
# CN I: Tv = 7560±631 K, r =1,00
#===================================================
   375.990    1079.661    370.5150    134.9576  
   376.020    1061.962    370.5608    132.7453  
   376.050    1079.517    370.6067    134.9396  
   376.080    1074.809    370.6525    134.3511  
   376.110     915.937    370.6983    114.4921  
   376.140     972.717    370.7442    121.5896  
   376.170    1020.617    370.7900    127.5771  
   376.200     968.707    370.8358    121.0884  
   376.230     905.229    370.8817    113.1536  
   376.260     942.005    370.9275    117.7507  
   376.290     962.119    370.9733    120.2649  
   376.320     909.042    371.0192    113.6303  
   376.350     914.494    371.0650    114.3117  
   376.380     905.190    371.1109    113.1488  
   376.410     939.607    371.1567    117.4509  
   376.440    1015.064    371.2025    126.8831  
   376.470     945.241    371.2484    118.1552  
   376.500     967.890    371.2942    120.9862  
   376.530     956.970    371.3400    119.6212  
   376.560     809.027    371.3859    101.1284  
   376.590     868.143    371.4317    108.5179  
   376.620     841.371    371.4775    105.1713  
   376.650     905.653    371.5233    113.2066  
   376.680    1085.086    371.5692    135.6358  
   376.710     967.314    371.6150    120.9142  
   376.740     902.169    371.6608    112.7711  
   376.770     957.477    371.7067    119.6847  
   376.800     900.421    371.7525    112.5526  
   376.830     860.760    371.7983    107.5950  
   376.860    1058.646    371.8442    132.3307  
   376.890    1079.947    371.8900    134.9934  
   376.920     948.287    371.9358    118.5359  
   376.950     923.909    371.9817    115.4887  
   376.980     878.823    372.0275    109.8528  
   377.010     927.886    372.0733    115.9858  
   377.040    1091.063    372.1192    136.3828  
   377.070    1138.012    372.1650    142.2515  
   377.100     972.426    372.2108    121.5532  
   377.130     931.924    372.2567    116.4904  
   377.160     966.013    372.3025    120.7516  
   377.190    1054.084    372.3484    131.7605  
   377.220    1080.782    372.3942    135.0977  
   377.250    1091.402    372.4400    136.4253  
   377.280    1016.470    372.4859    127.0588  
   377.310     907.388    372.5317    113.4234  
   377.340     947.235    372.5775    118.4044  
   377.370     979.990    372.6233    122.4988  
   377.400     990.279    372.6692    123.7848  
   377.430     958.639    372.7150    119.8299  
   377.460     996.029    372.7608    124.5037  
   377.490     979.592    372.8067    122.4490  
   377.520     929.272    372.8525    116.1590  
   377.550     924.704    372.8983    115.5880  
   377.580     901.217    372.9442    112.6522  
   377.610     866.620    372.9900    108.3275  
   377.640     992.211    373.0358    124.0264  
   377.670    1114.805    373.0817    139.3507  
   377.700     855.413    373.1275    106.9266  
   377.730     808.689    373.1733    101.0861  
   377.760     944.055    373.2192    118.0069  
   377.790     985.541    373.2650    123.1926  
   377.820     979.324    373.3108    122.4154  
   377.850    1051.521    373.3567    131.4401  
   377.880     878.773    373.4025    109.8466  
   377.910     880.490    373.4484    110.0612  
   377.940     986.777    373.4942    123.3471  
   377.970     900.791    373.5400    112.5989  
   378.000     889.682    373.5859    111.2103  
   378.030     967.044    373.6317    120.8805  
   378.060     913.600    373.6775    114.2000  
   378.090    1016.928    373.7233    127.1160  
   378.120     980.995    373.7692    122.6244  
   378.150     868.233    373.8150    108.5292  
   378.180     867.797    373.8608    108.4746  
   378.210    1014.235    373.9067    126.7794  
   378.240    1069.171    373.9525    133.6463  
   378.270     989.356    373.9983    123.6695  
   378.300     976.191    374.0442    122.0238  
   378.330     858.547    374.0900    107.3183  
   378.360     866.897    374.1358    108.3621  
   378.390     926.995    374.1817    115.8744  
   378.420    1148.304    374.2275    143.5380  
   378.450    1077.027    374.2733    134.6283  
   378.480     842.106    374.3192    105.2633  
   378.510     843.955    374.3650    105.4944  
   378.540     838.229    374.4108    104.7786  
   378.570    1004.600    374.4567    125.5750  
   378.600    1216.554    374.5025    152.0693  
   378.630    1000.413    374.5484    125.0517  
   378.660     849.906    374.5942    106.2382  
   378.690     739.259    374.6400     92.4074  
   378.720     927.265    374.6859    115.9082  
   378.750    1151.951    374.7317    143.9939  
   378.780    1214.858    374.7775    151.8572  
   378.810    1016.544    374.8233    127.0679  
   378.840     857.496    374.8692    107.1870  
   378.870     876.234    374.9150    109.5293  
   378.900    1006.080    374.9608    125.7599  
   378.930    1219.432    375.0067    152.4290  
   378.960    1197.339    375.0525    149.6674  
   378.990     903.694    375.0983    112.9617  
   379.020     879.682    375.1442    109.9603  
   379.050    1009.209    375.1900    126.1511  
   379.080     969.297    375.2358    121.1621  
   379.110    1109.509    375.2817    138.6886  
   379.140    1176.641    375.3275    147.0801  
   379.170    1047.964    375.3733    130.9955  
   379.200    1025.058    375.4192    128.1322  
   379.230     897.464    375.4650    112.1830  
   379.260    1058.812    375.5108    132.3515  
   379.290    1084.362    375.5567    135.5452  
   379.320    1195.500    375.6025    149.4375  
   379.350    1026.086    375.6483    128.2607  
   379.380     856.699    375.6942    107.0874  
   379.410     962.871    375.7400    120.3588  
   379.440    1016.616    375.7859    127.0770  
   379.470    1061.134    375.8317    132.6418  
   379.500    1138.566    375.8775    142.3207  
   379.530    1054.214    375.9233    131.7768  
   379.560     983.685    375.9692    122.9606  
   379.590    1056.601    376.0150    132.0751  
   379.620    1060.535    376.0608    132.5669  
   379.650    1141.686    376.1067    142.7107  
   379.680    1174.935    376.1525    146.8669  
   379.710     932.355    376.1983    116.5444  
   379.740    1032.938    376.2442    129.1173  
   379.770    1180.899    376.2900    147.6123  
   379.800     932.508    376.3358    116.5635  
   379.830    1022.481    376.3817    127.8102  
   379.860    1216.414    376.4275    152.0518  
   379.890    1048.954    376.4733    131.1192  
   379.920    1242.575    376.5192    155.3219  
   379.950     966.837    376.5650    120.8546  
   379.980     963.661    376.6108    120.4576  
   380.010    1153.895    376.6567    144.2369  
   380.040    1215.628    376.7025    151.9535  
   380.070    1250.264    376.7483    156.2830  
   380.100    1093.607    376.7941    136.7009  
   380.130     885.862    376.8400    110.7327  
   380.160     930.313    376.8859    116.2891  
   380.190    1341.524    376.9317    167.6905  
   380.220    1458.154    376.9775    182.2692  
   380.250    1011.665    377.0233    126.4581  
   380.280     839.528    377.0692    104.9410  
   380.310     975.310    377.1150    121.9138  
   380.340    1220.412    377.1608    152.5516  
   380.370    1395.722    377.2067    174.4653  
   380.400    1156.916    377.2525    144.6145  
   380.430    1007.495    377.2983    125.9369  
   380.460     996.280    377.3442    124.5350  
   380.490    1038.460    377.3900    129.8075  
   380.520    1368.051    377.4358    171.0063  
   380.550    1422.352    377.4817    177.7940  
   380.580    1050.546    377.5275    131.3182  
   380.610    1106.613    377.5733    138.3266  
   380.640     993.068    377.6192    124.1335  
   380.670    1173.133    377.6650    146.6416  
   380.700    1421.541    377.7108    177.6926  
   380.730    1254.264    377.7567    156.7830  
   380.760    1040.358    377.8025    130.0447  
   380.790    1029.792    377.8483    128.7240  
   380.820    1209.213    377.8941    151.1517  
   380.850    1311.952    377.9400    163.9940  
   380.880    1236.103    377.9859    154.5128  
   380.910    1105.989    378.0317    138.2486  
   380.940    1016.074    378.0775    127.0093  
   380.970    1138.476    378.1233    142.3095  
   381.000    1277.621    378.1692    159.7026  
   381.030    1335.814    378.2150    166.9768  
   381.060    1327.557    378.2608    165.9447  
   381.090    1020.585    378.3067    127.5731  
   381.120    1214.974    378.3525    151.8717  
   381.150    1254.143    378.3983    156.7679  
   381.180    1220.706    378.4442    152.5883  
   381.210    1394.875    378.4900    174.3594  
   381.240    1073.064    378.5358    134.1330  
   381.270    1393.170    378.5817    174.1462  
   381.300    1112.095    378.6275    139.0119  
   381.330    1069.162    378.6733    133.6453  
   381.360    1465.065    378.7192    183.1332  
   381.390    1519.447    378.7650    189.9308  
   381.420    1334.705    378.8108    166.8381  
   381.450    1078.777    378.8567    134.8471  
   381.480    1091.947    378.9025    136.4934  
   381.510    1496.218    378.9483    187.0272  
   381.540    1617.033    378.9941    202.1291  
   381.570    1255.187    379.0400    156.8984  
   381.600    1069.507    379.0858    133.6884  
   381.630    1248.598    379.1317    156.0748  
   381.660    1595.526    379.1775    199.4407  
   381.690    1724.653    379.2233    215.5817  
   381.720    1309.261    379.2692    163.6577  
   381.750    1081.095    379.3150    135.1369  
   381.780    1181.675    379.3608    147.7093  
   381.810    1298.216    379.4067    162.2770  
   381.840    1698.553    379.4525    212.3192  
   381.870    1306.485    379.4983    163.3106  
   381.900    1164.869    379.5442    145.6086  
   381.930    1117.375    379.5900    139.6718  
   381.960    1391.463    379.6358    173.9328  
   381.990    1720.779    379.6817    215.0974  
   382.020    1401.898    379.7275    175.2372  
   382.050    1163.211    379.7733    145.4014  
   382.080    1327.141    379.8192    165.8926  
   382.110    1838.578    379.8650    229.8223  
   382.140    1961.282    379.9108    245.1603  
   382.170    1479.948    379.9567    184.9935  
   382.200    1125.766    380.0025    140.7208  
   382.230    1394.937    380.0483    174.3671  
   382.260    1617.618    380.0941    202.2022  
   382.290    1425.958    380.1400    178.2447  
   382.320    1448.506    380.1858    181.0633  
   382.350    1469.369    380.2316    183.6711  
   382.380    1828.896    380.2775    228.6120  
   382.410    1296.814    380.3233    162.1017  
   382.440    1493.758    380.3692    186.7198  
   382.470    1759.857    380.4150    219.9822  
   382.500    1543.765    380.4608    192.9706  
   382.530    1504.596    380.5067    188.0745  
   382.560    1317.541    380.5525    164.6926  
   382.590    1657.109    380.5983    207.1386  
   382.620    1732.024    380.6442    216.5030  
   382.650    1764.721    380.6900    220.5901  
   382.680    1549.684    380.7358    193.7106  
   382.710    1409.794    380.7817    176.2242  
   382.740    1765.933    380.8275    220.7416  
   382.770    1717.009    380.8733    214.6261  
   382.800    1441.742    380.9192    180.2178  
   382.830    1362.661    380.9650    170.3327  
   382.860    1518.671    381.0108    189.8338  
   382.890    1860.653    381.0567    232.5816  
   382.920    1814.275    381.1025    226.7844  
   382.950    1326.850    381.1483    165.8562  
   382.980    1332.707    381.1941    166.5884  
   383.010    1810.767    381.2400    226.3459  
   383.040    2080.120    381.2858    260.0150  
   383.070    1472.896    381.3316    184.1121  
   383.100    1330.945    381.3775    166.3681  
   383.130    1635.541    381.4233    204.4426  
   383.160    1815.058    381.4692    226.8822  
   383.190    1849.149    381.5150    231.1436  
   383.220    1407.354    381.5608    175.9193  
   383.250    1742.525    381.6067    217.8157  
   383.280    1750.978    381.6525    218.8722  
   383.310    1863.261    381.6983    232.9077  
   383.340    1838.249    381.7442    229.7811  
   383.370    1804.970    381.7900    225.6213  
   383.400    1580.291    381.8358    197.5364  
   383.430    1715.896    381.8817    214.4870  
   383.460    2021.405    381.9275    252.6756  
   383.490    2002.879    381.9733    250.3598  
   383.520    1772.108    382.0192    221.5135  
   383.550    1616.629    382.0650    202.0786  
   383.580    1836.912    382.1108    229.6140  
   383.610    2088.532    382.1567    261.0665  
   383.640    1827.701    382.2025    228.4626  
   383.670    1536.245    382.2483    192.0306  
   383.700    1748.782    382.2941    218.5977  
   383.730    2230.214    382.3400    278.7767  
   383.760    1955.772    382.3858    244.4715  
   383.790    1473.904    382.4316    184.2380  
   383.820    1786.330    382.4775    223.2913  
   383.850    2227.071    382.5233    278.3839  
   383.880    2149.176    382.5692    268.6470  
   383.910    1874.461    382.6150    234.3076  
   383.940    1844.656    382.6608    230.5820  
   383.970    1946.245    382.7067    243.2806  
   384.000    2249.565    382.7525    281.1956  
   384.030    1866.481    382.7983    233.3101  
   384.060    1988.164    382.8442    248.5204  
   384.090    2052.830    382.8900    256.6037  
   384.120    2313.520    382.9358    289.1899  
   384.150    2252.283    382.9817    281.5354  
   384.180    2180.794    383.0275    272.5992  
   384.210    2055.519    383.0733    256.9398  
   384.240    2212.228    383.1192    276.5285  
   384.270    2386.455    383.1650    298.3069  
   384.300    2096.233    383.2108    262.0292  
   384.330    1940.425    383.2567    242.5532  
   384.360    2253.264    383.3025    281.6580  
   384.390    2508.089    383.3483    313.5111  
   384.420    2123.869    383.3941    265.4836  
   384.450    2020.602    383.4400    252.5753  
   384.480    2303.303    383.4858    287.9129  
   384.510    2668.688    383.5316    333.5859  
   384.540    2169.290    383.5775    271.1613  
   384.570    2012.515    383.6233    251.5644  
   384.600    2455.697    383.6691    306.9621  
   384.630    2576.912    383.7150    322.1140  
   384.660    2296.442    383.7608    287.0553  
   384.690    2251.175    383.8067    281.3969  
   384.720    2224.639    383.8525    278.0799  
   384.750    2658.231    383.8983    332.2788  
   384.780    2576.431    383.9442    322.0538  
   384.810    2284.761    383.9900    285.5951  
   384.840    2286.327    384.0358    285.7908  
   384.870    2759.414    384.0817    344.9267  
   384.900    2651.909    384.1275    331.4886  
   384.930    2352.785    384.1733    294.0982  
   384.960    2685.677    384.2192    335.7096  
   384.990    2954.251    384.2650    369.2814  
   385.020    2749.434    384.3108    343.6792  
   385.050    2777.170    384.3567    347.1462  
   385.080    3157.233    384.4025    394.6541  
   385.110    3354.633    384.4483    419.3291  
   385.140    3347.298    384.4941    418.4123  
   385.170    3291.145    384.5400    411.3931  
   385.200    2883.532    384.5858    360.4415  
   385.230    2953.722    384.6316    369.2153  
   385.260    2465.631    384.6775    308.2039  
   385.290    2042.551    384.7233    255.3189  
   385.320    2636.601    384.7691    329.5751  
   385.350    2656.688    384.8150    332.0860  
   385.380    2321.415    384.8608    290.1769  
   385.410    2673.827    384.9067    334.2284  
   385.440    2975.426    384.9525    371.9283  
   385.470    2828.473    384.9983    353.5592  
   385.500    2988.958    385.0442    373.6198  
   385.530    3439.514    385.0900    429.9393  m_CN I 385.09000 nm
   385.560    3378.892    385.1463    422.3615  
   385.590    2624.563    385.2016    328.0704  
   385.620    2268.875    385.2558    283.6094  
   385.650    2524.272    385.3091    315.5340  
   385.680    2458.108    385.3613    307.2635  
   385.710    2296.220    385.4126    287.0275  
   385.740    2571.578    385.4629    321.4473  
   385.770    2594.070    385.5123    324.2588  
   385.800    2377.230    385.5607    297.1538  
   385.830    2349.944    385.6083    293.7430  
   385.860    2597.498    385.6550    324.6872  
   385.890    2687.685    385.7008    335.9607  
   385.920    2347.635    385.7458    293.4543  
   385.950    2783.553    385.7899    347.9441  
   385.980    2770.862    385.8333    346.3578  
   386.010    2492.047    385.8758    311.5059  
   386.040    2692.217    385.9176    336.5271  
   386.070    3192.666    385.9586    399.0832  
   386.100    2980.568    385.9989    372.5710  
   386.130    2766.336    386.0385    345.7920  
   386.160    3160.104    386.0774    395.0129  
   386.190    3191.629    386.1156    398.9536  
   386.220    3644.535    386.1531    455.5669  
   386.250    4093.899    386.1900    511.7373  m_CN I 386.19000 nm
   386.280    3227.468    386.2263    403.4335  
   386.310    2282.356    386.2619    285.2945  
   386.340    2165.580    386.2970    270.6975  
   386.370    2143.582    386.3315    267.9478  
   386.400    2027.098    386.3654    253.3873  
   386.430    2179.984    386.3988    272.4980  
   386.460    2262.382    386.4317    282.7978  
   386.490    2103.228    386.4641    262.9035  
   386.520    2264.424    386.4960    283.0530  
   386.550    2296.835    386.5275    287.1044  
   386.580    2147.120    386.5585    268.3900  
   386.610    2319.436    386.5891    289.9294  
   386.640    2261.143    386.6193    282.6429  
   386.670    2236.477    386.6491    279.5596  
   386.700    2460.117    386.6785    307.5147  
   386.730    2192.800    386.7076    274.0999  
   386.760    2231.210    386.7363    278.9012  
   386.790    2477.146    386.7647    309.6432  
   386.820    2306.951    386.7929    288.3689  
   386.850    2444.200    386.8207    305.5250  
   386.880    2547.134    386.8484    318.3918  
   386.910    2404.126    386.8757    300.5157  
   386.940    2416.206    386.9028    302.0257  
   386.970    2543.450    386.9298    317.9312  
   387.000    2648.567    386.9565    331.0709  
   387.030    2833.168    386.9831    354.1461  
   387.060    2896.142    387.0095    362.0178  
   387.090    2989.519    387.0358    373.6899  
   387.120    3227.740    387.0620    403.4676  
   387.150    3529.155    387.0880    441.1444  
   387.180    4169.841    387.1141    521.2302  
   387.210    4816.854    387.1400    602.1067  m_CN I 387.14000 nm
   387.240    4473.095    387.1659    559.1369  
   387.270    2706.180    387.1918    338.2725  
   387.300    1656.603    387.2177    207.0753  
   387.330    1775.995    387.2436    221.9993  
   387.360    1608.696    387.2695    201.0869  
   387.390    1642.860    387.2955    205.3575  
   387.420    1581.656    387.3215    197.7070  
   387.450    1666.929    387.3477    208.3661  
   387.480    1623.819    387.3739    202.9773  
   387.510    1675.605    387.4003    209.4506  
   387.540    1644.321    387.4268    205.5401  
   387.570    1712.105    387.4535    214.0131  
   387.600    1634.753    387.4803    204.3441  
   387.630    1737.933    387.5074    217.2416  
   387.660    1693.894    387.5347    211.7368  
   387.690    1747.029    387.5622    218.3786  
